#R dependence of bare Coulomb
#1:R [AA], 2:Re[V(R)] [eV], 3:Im[V(R)] [eV]
    20.57828     0.71633     0.00000
    20.57828     0.71470    -0.00000
    20.57828     0.71470     0.00000
    20.57828     0.71063    -0.00000
    20.57828     0.71089    -0.00000
    25.71231     0.69840     0.00000
    25.71231     0.69721     0.00000
    25.71231     0.69721    -0.00000
    25.71231     0.69383     0.00000
    25.71231     0.69413    -0.00000
    31.51006     0.83845     0.00000
    31.51006     0.83881     0.00000
    31.51006     0.83881    -0.00000
    31.51006     0.83782     0.00000
    31.51006     0.83835    -0.00000
    37.66628     1.03950    -0.00000
    37.66628     1.04240    -0.00000
    37.66628     1.04240    -0.00000
    37.66628     1.04564     0.00000
    37.66628     1.04696    -0.00000
    44.03086     1.16500     0.00000
    44.03086     1.16964     0.00000
    44.03086     1.16964     0.00000
    44.03086     1.17593    -0.00000
    44.03086     1.17842     0.00000
    50.52512     1.11015    -0.00000
    50.52512     1.11318    -0.00000
    50.52512     1.11318    -0.00000
    50.52512     1.11653     0.00000
    50.52512     1.11774    -0.00000
    57.10484     0.89815     0.00000
    57.10484     0.89766    -0.00000
    57.10484     0.89766     0.00000
    57.10484     0.89521    -0.00000
    57.10484     0.89556     0.00000
    15.29900     0.94542    -0.00000
    15.29900     0.94278     0.00000
    15.29900     0.94499    -0.00000
    15.29900     0.93980     0.00000
    15.29900     0.94000     0.00000
    19.82164     0.72509     0.00000
    19.82164     0.72300     0.00000
    19.82164     0.72332     0.00000
    19.82164     0.71869    -0.00000
    19.82164     0.71893     0.00000
    25.41336     0.69518    -0.00000
    25.41336     0.69411     0.00000
    25.41336     0.69397    -0.00000
    25.41336     0.69075    -0.00000
    25.41336     0.69106    -0.00000
    31.51006     0.83845    -0.00000
    31.51006     0.83881    -0.00000
    31.51006     0.83881     0.00000
    31.51006     0.83782    -0.00000
    31.51006     0.83835     0.00000
    37.86862     1.06959    -0.00000
    37.86862     1.07166     0.00000
    37.86862     1.07348     0.00000
    37.86862     1.07592     0.00000
    37.86862     1.07714    -0.00000
    44.37662     1.25008     0.00000
    44.37662     1.25266    -0.00000
    44.37662     1.25835    -0.00000
    44.37662     1.26325     0.00000
    44.37662     1.26572     0.00000
    50.97686     1.21152    -0.00000
    50.97686     1.21146    -0.00000
    50.97686     1.21772    -0.00000
    50.97686     1.21780     0.00000
    50.97686     1.21860     0.00000
    11.77949     1.30582    -0.00000
    11.77949     1.30138    -0.00000
    11.77949     1.31639     0.00000
    11.77949     1.31187    -0.00000
    11.77949     1.31134    -0.00000
    14.79105     0.96799     0.00000
    14.79105     0.96411    -0.00000
    14.79105     0.96762    -0.00000
    14.79105     0.96087    -0.00000
    14.79105     0.96097    -0.00000
    19.82164     0.72509     0.00000
    19.82164     0.72300    -0.00000
    19.82164     0.72332     0.00000
    19.82164     0.71869     0.00000
    19.82164     0.71893    -0.00000
    25.71231     0.69840    -0.00000
    25.71231     0.69721    -0.00000
    25.71231     0.69721    -0.00000
    25.71231     0.69383     0.00000
    25.71231     0.69413    -0.00000
    31.99144     0.86323    -0.00000
    31.99144     0.86269     0.00000
    31.99144     0.86398     0.00000
    31.99144     0.86190    -0.00000
    31.99144     0.86233    -0.00000
    38.46927     1.14111     0.00000
    38.46927     1.14080     0.00000
    38.46927     1.14775     0.00000
    38.46927     1.14792    -0.00000
    38.46927     1.14863     0.00000
    45.06019     1.37001     0.00000
    45.06019     1.36824     0.00000
    45.06019     1.38527    -0.00000
    45.06019     1.38744    -0.00000
    45.06019     1.38803    -0.00000
    11.72847     1.43002    -0.00000
    11.72847     1.42502     0.00000
    11.72847     1.44985     0.00000
    11.72847     1.45130     0.00000
    11.72847     1.44838    -0.00000
    11.77949     1.30582     0.00000
    11.77949     1.30138    -0.00000
    11.77949     1.31639     0.00000
    11.77949     1.31187     0.00000
    11.77949     1.31134    -0.00000
    15.29899     0.94542    -0.00000
    15.29899     0.94278     0.00000
    15.29899     0.94499     0.00000
    15.29899     0.93980     0.00000
    15.29899     0.94000     0.00000
    20.57828     0.71633     0.00000
    20.57828     0.71470     0.00000
    20.57828     0.71470    -0.00000
    20.57828     0.71063    -0.00000
    20.57828     0.71089    -0.00000
    26.58901     0.70582    -0.00000
    26.58901     0.70433     0.00000
    26.58901     0.70467    -0.00000
    26.58901     0.70089    -0.00000
    26.58901     0.70117     0.00000
    32.93309     0.89544    -0.00000
    32.93309     0.89358    -0.00000
    32.93309     0.89677    -0.00000
    32.93309     0.89310    -0.00000
    32.93309     0.89335    -0.00000
    39.45003     1.20283    -0.00000
    39.45003     1.19996    -0.00000
    39.45003     1.21237     0.00000
    39.45003     1.21017    -0.00000
    39.45003     1.20998     0.00000
    15.18094     1.20283     0.00000
    15.18094     1.19996     0.00000
    15.18094     1.21237    -0.00000
    15.18094     1.21017    -0.00000
    15.18094     1.20998     0.00000
    12.36289     1.37001    -0.00000
    12.36289     1.36824     0.00000
    12.36289     1.38527     0.00000
    12.36289     1.38744    -0.00000
    12.36289     1.38803     0.00000
    13.01248     1.21152    -0.00000
    13.01248     1.21146     0.00000
    13.01248     1.21773     0.00000
    13.01248     1.21780    -0.00000
    13.01248     1.21860    -0.00000
    16.73056     0.89815     0.00000
    16.73056     0.89766     0.00000
    16.73056     0.89766     0.00000
    16.73056     0.89521     0.00000
    16.73056     0.89556    -0.00000
    22.01368     0.70582     0.00000
    22.01368     0.70467    -0.00000
    22.01368     0.70433     0.00000
    22.01368     0.70089    -0.00000
    22.01368     0.70117    -0.00000
    27.98921     0.71195    -0.00000
    27.98921     0.71017    -0.00000
    27.98921     0.71082     0.00000
    27.98921     0.70670    -0.00000
    27.98921     0.70695    -0.00000
    34.29713     0.91028     0.00000
    34.29713     0.90775    -0.00000
    34.29713     0.91189     0.00000
    34.29713     0.90743    -0.00000
    34.29713     0.90758     0.00000
    20.43204     0.89544    -0.00000
    20.43204     0.89358    -0.00000
    20.43204     0.89677    -0.00000
    20.43204     0.89310     0.00000
    20.43204     0.89335     0.00000
    16.15640     1.14111     0.00000
    16.15640     1.14080     0.00000
    16.15640     1.14775     0.00000
    16.15640     1.14792     0.00000
    16.15640     1.14863     0.00000
    14.09586     1.25008    -0.00000
    14.09586     1.25266     0.00000
    14.09586     1.25835     0.00000
    14.09586     1.26325     0.00000
    14.09586     1.26572    -0.00000
    15.18094     1.11015     0.00000
    15.18094     1.11318     0.00000
    15.18094     1.11318     0.00000
    15.18094     1.11653    -0.00000
    15.18094     1.11774     0.00000
    18.87676     0.86323    -0.00000
    18.87676     0.86398     0.00000
    18.87676     0.86269    -0.00000
    18.87676     0.86190    -0.00000
    18.87676     0.86233    -0.00000
    24.00639     0.70128     0.00000
    24.00639     0.70033    -0.00000
    24.00639     0.69984     0.00000
    24.00639     0.69667    -0.00000
    24.00639     0.69695     0.00000
    29.83931     0.71195    -0.00000
    29.83931     0.71017     0.00000
    29.83931     0.71082     0.00000
    29.83931     0.70670     0.00000
    29.83931     0.70695    -0.00000
    26.43065     0.70582     0.00000
    26.43065     0.70433     0.00000
    26.43065     0.70467    -0.00000
    26.43065     0.70089    -0.00000
    26.43065     0.70117     0.00000
    21.52489     0.86323     0.00000
    21.52489     0.86269     0.00000
    21.52489     0.86398    -0.00000
    21.52489     0.86190    -0.00000
    21.52489     0.86233     0.00000
    17.94897     1.06959     0.00000
    17.94897     1.07166     0.00000
    17.94897     1.07348     0.00000
    17.94897     1.07592    -0.00000
    17.94897     1.07714     0.00000
    16.58655     1.16500     0.00000
    16.58655     1.16964    -0.00000
    16.58655     1.16964    -0.00000
    16.58655     1.17593     0.00000
    16.58655     1.17842    -0.00000
    17.94897     1.06959     0.00000
    17.94897     1.07348     0.00000
    17.94897     1.07166     0.00000
    17.94897     1.07592    -0.00000
    17.94897     1.07714     0.00000
    21.52489     0.86323     0.00000
    21.52489     0.86398    -0.00000
    21.52489     0.86269     0.00000
    21.52489     0.86190     0.00000
    21.52489     0.86233    -0.00000
    26.43065     0.70582    -0.00000
    26.43065     0.70467     0.00000
    26.43065     0.70433    -0.00000
    26.43065     0.70089     0.00000
    26.43065     0.70117    -0.00000
    15.29900     0.94542    -0.00000
    15.29900     0.94499    -0.00000
    15.29900     0.94278    -0.00000
    15.29900     0.93980     0.00000
    15.29900     0.94000     0.00000
    19.82164     0.72509     0.00000
    19.82164     0.72332    -0.00000
    19.82164     0.72300     0.00000
    19.82164     0.71869    -0.00000
    19.82164     0.71893    -0.00000
    25.41336     0.69518     0.00000
    25.41336     0.69397     0.00000
    25.41336     0.69411     0.00000
    25.41336     0.69075    -0.00000
    25.41336     0.69106     0.00000
    31.51006     0.83845    -0.00000
    31.51006     0.83881    -0.00000
    31.51006     0.83881    -0.00000
    31.51006     0.83782    -0.00000
    31.51006     0.83835     0.00000
    37.86862     1.06959     0.00000
    37.86862     1.07348    -0.00000
    37.86862     1.07166    -0.00000
    37.86862     1.07592     0.00000
    37.86862     1.07714    -0.00000
    44.37662     1.25008     0.00000
    44.37662     1.25835     0.00000
    44.37662     1.25266    -0.00000
    44.37662     1.26325     0.00000
    44.37662     1.26572     0.00000
    50.97686     1.21152     0.00000
    50.97686     1.21772    -0.00000
    50.97686     1.21146    -0.00000
    50.97686     1.21780    -0.00000
    50.97686     1.21860    -0.00000
    10.40135     1.40984     0.00000
    10.40135     1.41176     0.00000
    10.40135     1.41176     0.00000
    10.40135     1.41202    -0.00000
    10.40135     1.41284    -0.00000
    13.71885     1.01677     0.00000
    13.71885     1.01262    -0.00000
    13.71885     1.01262    -0.00000
    13.71885     1.00481    -0.00000
    13.71885     1.00496    -0.00000
    19.03495     0.73612    -0.00000
    19.03495     0.73374    -0.00000
    19.03495     0.73374     0.00000
    19.03495     0.72866     0.00000
    19.03495     0.72889     0.00000
    25.11085     0.69251     0.00000
    25.11085     0.69141     0.00000
    25.11085     0.69141    -0.00000
    25.11085     0.68816     0.00000
    25.11085     0.68848    -0.00000
    31.51006     0.83845    -0.00000
    31.51006     0.83881     0.00000
    31.51006     0.83881     0.00000
    31.51006     0.83782    -0.00000
    31.51006     0.83835     0.00000
    38.06989     1.11015    -0.00000
    38.06989     1.11318    -0.00000
    38.06989     1.11318    -0.00000
    38.06989     1.11653    -0.00000
    38.06989     1.11774    -0.00000
    44.71971     1.41005    -0.00000
    44.71971     1.41727    -0.00000
    44.71971     1.41727     0.00000
    44.71971     1.42808    -0.00000
    44.71971     1.43278     0.00000
     8.74188     1.68530     0.00000
     8.74188     1.68355    -0.00000
     8.74188     1.70949     0.00000
     8.74188     1.71580     0.00000
     8.74188     1.71996    -0.00000
     8.81022     1.63575    -0.00000
     8.81022     1.62412     0.00000
     8.81022     1.64467     0.00000
     8.81022     1.62741     0.00000
     8.81022     1.62624     0.00000
    13.15001     1.05275     0.00000
    13.15001     1.04598    -0.00000
    13.15001     1.04756    -0.00000
    13.15001     1.03668    -0.00000
    13.15001     1.03679     0.00000
    19.03495     0.73612    -0.00000
    19.03495     0.73374    -0.00000
    19.03495     0.73374     0.00000
    19.03495     0.72866     0.00000
    19.03495     0.72889     0.00000
    25.41336     0.69518     0.00000
    25.41336     0.69397     0.00000
    25.41336     0.69411    -0.00000
    25.41336     0.69075    -0.00000
    25.41336     0.69106    -0.00000
    31.99144     0.86323     0.00000
    31.99144     0.86269     0.00000
    31.99144     0.86398    -0.00000
    31.99144     0.86190    -0.00000
    31.99144     0.86233    -0.00000
    38.66741     1.21152    -0.00000
    38.66741     1.21146     0.00000
    38.66741     1.21773     0.00000
    38.66741     1.21780    -0.00000
    38.66741     1.21860     0.00000
    11.77949     1.30582     0.00000
    11.77949     1.30138     0.00000
    11.77949     1.31639    -0.00000
    11.77949     1.31187     0.00000
    11.77949     1.31134     0.00000
     7.81898     1.85804     0.00000
     7.81898     1.84195     0.00000
     7.81898     1.90353    -0.00000
     7.81898     1.90718    -0.00000
     7.81898     1.89351     0.00000
     8.81022     1.63575     0.00000
     8.81022     1.62412    -0.00000
     8.81022     1.64467    -0.00000
     8.81022     1.62741     0.00000
     8.81022     1.62624    -0.00000
    13.71885     1.01677     0.00000
    13.71885     1.01262    -0.00000
    13.71885     1.01262     0.00000
    13.71885     1.00481     0.00000
    13.71885     1.00496     0.00000
    19.82164     0.72509    -0.00000
    19.82164     0.72332    -0.00000
    19.82164     0.72300    -0.00000
    19.82164     0.71869     0.00000
    19.82164     0.71893    -0.00000
    26.30002     0.70128     0.00000
    26.30002     0.69984    -0.00000
    26.30002     0.70033     0.00000
    26.30002     0.69667     0.00000
    26.30002     0.69695    -0.00000
    32.93309     0.89544     0.00000
    32.93309     0.89358     0.00000
    32.93309     0.89677     0.00000
    32.93309     0.89310    -0.00000
    32.93309     0.89335     0.00000
    17.18126     0.91028     0.00000
    17.18126     0.90775    -0.00000
    17.18126     0.91189    -0.00000
    17.18126     0.90743    -0.00000
    17.18126     0.90758     0.00000
    11.77949     1.30582    -0.00000
    11.77949     1.30138    -0.00000
    11.77949     1.31639    -0.00000
    11.77949     1.31187     0.00000
    11.77949     1.31134    -0.00000
     8.74188     1.68530     0.00000
     8.74188     1.68355    -0.00000
     8.74188     1.70949     0.00000
     8.74188     1.71580     0.00000
     8.74188     1.71997     0.00000
    10.40135     1.40984    -0.00000
    10.40135     1.41176     0.00000
    10.40135     1.41176     0.00000
    10.40135     1.41202    -0.00000
    10.40135     1.41284    -0.00000
    15.29899     0.94542    -0.00000
    15.29899     0.94499     0.00000
    15.29899     0.94278     0.00000
    15.29899     0.93980    -0.00000
    15.29899     0.94000     0.00000
    21.30807     0.71195     0.00000
    21.30807     0.71082    -0.00000
    21.30807     0.71017     0.00000
    21.30807     0.70670    -0.00000
    21.30807     0.70695    -0.00000
    27.71483     0.70630    -0.00000
    27.71483     0.70465    -0.00000
    27.71483     0.70543     0.00000
    27.71483     0.70151     0.00000
    27.71483     0.70176    -0.00000
    23.36104     0.70630     0.00000
    23.36104     0.70465    -0.00000
    23.36104     0.70543    -0.00000
    23.36104     0.70151    -0.00000
    23.36104     0.70176    -0.00000
    17.62043     0.89544     0.00000
    17.62043     0.89358    -0.00000
    17.62043     0.89677     0.00000
    17.62043     0.89310    -0.00000
    17.62043     0.89335     0.00000
    13.01248     1.21152     0.00000
    13.01248     1.21146     0.00000
    13.01248     1.21773     0.00000
    13.01248     1.21780    -0.00000
    13.01248     1.21860     0.00000
    11.05770     1.41005    -0.00000
    11.05770     1.41727     0.00000
    11.05770     1.41727     0.00000
    11.05770     1.42809     0.00000
    11.05770     1.43278     0.00000
    13.01248     1.21152    -0.00000
    13.01248     1.21773     0.00000
    13.01248     1.21146    -0.00000
    13.01248     1.21780    -0.00000
    13.01248     1.21860     0.00000
    17.62043     0.89544     0.00000
    17.62043     0.89677    -0.00000
    17.62043     0.89358    -0.00000
    17.62043     0.89310     0.00000
    17.62043     0.89335    -0.00000
    23.36104     0.70630    -0.00000
    23.36104     0.70543    -0.00000
    23.36104     0.70465     0.00000
    23.36104     0.70151     0.00000
    23.36104     0.70176     0.00000
    29.83931     0.71195    -0.00000
    29.83931     0.71082     0.00000
    29.83931     0.71017    -0.00000
    29.83931     0.70670    -0.00000
    29.83931     0.70695    -0.00000
    24.00639     0.70128    -0.00000
    24.00639     0.69984    -0.00000
    24.00639     0.70033     0.00000
    24.00639     0.69667     0.00000
    24.00639     0.69695     0.00000
    18.87676     0.86323    -0.00000
    18.87676     0.86269    -0.00000
    18.87676     0.86398     0.00000
    18.87676     0.86190     0.00000
    18.87676     0.86233     0.00000
    15.18094     1.11015    -0.00000
    15.18094     1.11318    -0.00000
    15.18094     1.11318    -0.00000
    15.18094     1.11653    -0.00000
    15.18094     1.11774     0.00000
    14.09586     1.25008     0.00000
    14.09586     1.25835     0.00000
    14.09586     1.25266    -0.00000
    14.09586     1.26325    -0.00000
    14.09586     1.26572    -0.00000
    16.15640     1.14111    -0.00000
    16.15640     1.14775    -0.00000
    16.15640     1.14080     0.00000
    16.15640     1.14792    -0.00000
    16.15640     1.14863    -0.00000
    20.43204     0.89544    -0.00000
    20.43204     0.89677    -0.00000
    20.43204     0.89358     0.00000
    20.43204     0.89310     0.00000
    20.43204     0.89335     0.00000
    11.77949     1.30582    -0.00000
    11.77949     1.31639     0.00000
    11.77949     1.30138    -0.00000
    11.77949     1.31187    -0.00000
    11.77949     1.31134    -0.00000
    14.79105     0.96799     0.00000
    14.79105     0.96762     0.00000
    14.79105     0.96411     0.00000
    14.79105     0.96087    -0.00000
    14.79105     0.96097     0.00000
    19.82164     0.72509    -0.00000
    19.82164     0.72332     0.00000
    19.82164     0.72300    -0.00000
    19.82164     0.71869     0.00000
    19.82164     0.71893    -0.00000
    25.71231     0.69840    -0.00000
    25.71231     0.69721     0.00000
    25.71231     0.69721     0.00000
    25.71231     0.69383     0.00000
    25.71231     0.69413     0.00000
    31.99144     0.86323    -0.00000
    31.99144     0.86398     0.00000
    31.99144     0.86269     0.00000
    31.99144     0.86190    -0.00000
    31.99144     0.86233     0.00000
    38.46927     1.14111     0.00000
    38.46927     1.14775     0.00000
    38.46927     1.14080    -0.00000
    38.46927     1.14792    -0.00000
    38.46927     1.14863    -0.00000
    45.06019     1.37001    -0.00000
    45.06019     1.38527     0.00000
    45.06019     1.36824     0.00000
    45.06019     1.38744    -0.00000
    45.06019     1.38803     0.00000
     8.74188     1.68530     0.00000
     8.74188     1.70949     0.00000
     8.74188     1.68355    -0.00000
     8.74188     1.71580     0.00000
     8.74188     1.71996     0.00000
     8.81022     1.63575     0.00000
     8.81022     1.64467     0.00000
     8.81022     1.62412    -0.00000
     8.81022     1.62741    -0.00000
     8.81022     1.62624    -0.00000
    13.15001     1.05275     0.00000
    13.15001     1.04756     0.00000
    13.15001     1.04598    -0.00000
